function [factor, phase_out, preamp_gain_out, hydro_sens_out] = ky_volt_to_pa ( f0 )
%
% factor [phase,preamp_gain,hydro_sens] = volt_to_pa ( f0 )
%       'f0': the center frequency in Hz 
%   'factor': the convertion facter in Pa/V
%
% The optional output variables are:
%       Phase: the fase change at f0 (degrees) (by the preamp)
% preamp_gain: the preamp gain at f0 (dB)
%  hydro_sens: the hydrophone sensitivity at f0 (dB rel 1V/muPa)
%
% Version 1.0, 2015-06-19, Currently assumes input frequency is 15 MHz.
% Version 1.1, 2015-06-22, Now accepts f0 as an input variable (1-20MHz supported).
% Version 1.2, 2015-06-24, f0 can now be a vector. 
%
% By Morten Fischer Rasmussen, 
%


if max(f0(:)) > 20e6, error('Error: ''f0'' larger than 20 MHz is not supported.'); end

% interpol_method = 'spline';
% interpol_method = 'cubic';
interpol_method = 'linear';

% Get preamp data
preamp1        = get_preamp_lower_gain;
preamp2        = get_preamp_upper_gain;
% Combine the two data sets
preamp_tot     = [preamp1; preamp2];
[~, unq_idx]   = unique(preamp_tot(:,1));
preamp_data    = preamp_tot(unq_idx, :);
% Give sensible names
preamp_f       = preamp_data(:,1) * 1e6;
preamp_gain_dB = preamp_data(:,2);
preamp_phase   = preamp_data(:,3);
preamp_c       = preamp_data(:,4);
% Get Hydrophone data
hydro_data     = get_hydrophone_calibration;
hydro_f        = hydro_data(:,1)*1e6;
hydro_sens_dB  = hydro_data(:,2);
hydro_c        = hydro_data(:,5);

% Amplifier gain at f0
gain_dB = interp1(preamp_f, preamp_gain_dB, f0);
% Amplifier capacitance at f0
c_a = interp1(preamp_f, preamp_c, f0, interpol_method);
% Hydrophone sensitivity at f0
sens_dB = interp1(hydro_f, hydro_sens_dB, f0, interpol_method); % dB rel 1V/muPa
                                                  %sens_dB = -265.18;   
% Hydrophone capacitance at f0
c_h = interp1(hydro_f, hydro_c, f0, interpol_method); % dB rel 1V/muPa




% Voltage division from capacitors
%c_c = 0e-12;    % 90deg coaxial plug
         %c_a = 6.1e-12;    % amplifier
         %c_h = 76.835e-12; % hydrophone

volt_div = c_h ./ (c_h + c_a);
volt_div_dB = 20*log10(volt_div);

combined_sense_dB = sens_dB + gain_dB + volt_div_dB; %dB rel 1V/muPa
combined_sense    = 10.^((combined_sense_dB+120)/20); % V/Pa
factor            = 1./combined_sense;                % Pa/V

% Old factor
%amin_factor_raw = 2.572;            %kPa/mW
%amin_factor = amin_factor_raw * 1e6 % Pa/V

%pressure = volt * amin_factor;


if nargout > 1, phase_out       = preamp_phase; end
if nargout > 2, preamp_gain_out = gain_dB;      end
if nargout > 3, hydro_sens_out  = sense_dB;     end

end







function data = get_preamp_lower_gain
% MHz, dB, Phase, pF
data = ...
    [001.000, 19.98, -8.19, 6.48; ...
     001.050, 19.98, -8.70, 6.48; ...
     001.100, 19.98, -9.20, 6.48; ...
     001.150, 19.98, -9.71, 6.48; ...
     001.200, 19.98, -10.22, 6.48; ...
     001.250, 19.98, -10.73, 6.48; ...
     001.300, 19.98, -11.23, 6.48; ...
     001.350, 19.99, -11.71, 6.48; ...
     001.400, 20.00, -12.19, 6.48; ...
     001.450, 20.01, -12.67, 6.48; ...
     001.500, 20.01, -13.15, 6.48; ...
     001.550, 20.02, -13.63, 6.48; ...
     001.600, 20.02, -14.11, 6.48; ...
     001.650, 20.02, -14.60, 6.48; ...
     001.700, 20.02, -15.10, 6.48; ...
     001.750, 20.02, -15.60, 6.48; ...
     001.800, 20.02, -16.10, 6.48; ...
     001.850, 20.01, -16.61, 6.48; ...
     001.900, 20.01, -17.11, 6.49; ...
     001.950, 20.01, -17.60, 6.49; ...
     002.000, 20.01, -18.08, 6.49; ...
     002.050, 20.01, -18.56, 6.49; ...
     002.100, 20.00, -19.04, 6.49; ...
     002.150, 20.00, -19.53, 6.49; ...
     002.200, 19.99, -20.01, 6.49; ...
     002.250, 19.99, -20.50, 6.49; ...
     002.300, 19.99, -20.98, 6.49; ...
     002.350, 19.99, -21.47, 6.49; ...
     002.400, 19.99, -21.95, 6.49; ...
     002.450, 19.99, -22.44, 6.49; ...
     002.500, 19.98, -22.93, 6.49; ...
     002.550, 19.98, -23.42, 6.49; ...
     002.600, 19.98, -23.91, 6.49; ...
     002.650, 19.98, -24.41, 6.49; ...
     002.700, 19.97, -24.90, 6.49; ...
     002.750, 19.97, -25.40, 6.49; ...
     002.800, 19.97, -25.89, 6.49; ...
     002.850, 19.97, -26.38, 6.49; ...
     002.900, 19.96, -26.86, 6.49; ...
     002.950, 19.96, -27.33, 6.49; ...
     003.000, 19.96, -27.80, 6.49; ...
     003.050, 19.96, -28.27, 6.49; ...
     003.100, 19.96, -28.73, 6.49; ...
     003.150, 19.97, -29.21, 6.49; ...
     003.200, 19.97, -29.68, 6.49; ...
     003.250, 19.97, -30.16, 6.49; ...
     003.300, 19.96, -30.64, 6.49; ...
     003.350, 19.96, -31.12, 6.49; ...
     003.400, 19.96, -31.61, 6.49; ...
     003.450, 19.96, -32.09, 6.49; ...
     003.500, 19.96, -32.56, 6.49; ...
     003.550, 19.96, -33.01, 6.49; ...
     003.600, 19.96, -33.45, 6.49; ...
     003.650, 19.95, -33.90, 6.49; ...
     003.700, 19.95, -34.34, 6.49; ...
     003.750, 19.95, -34.80, 6.49; ...
     003.800, 19.94, -35.25, 6.49; ...
     003.850, 19.94, -35.74, 6.50; ...
     003.900, 19.94, -36.24, 6.50; ...
     003.950, 19.93, -36.74, 6.50; ...
     004.000, 19.93, -37.23, 6.50; ...
     004.050, 19.92, -37.73, 6.50; ...
     004.100, 19.92, -38.22, 6.50; ...
     004.150, 19.92, -38.68, 6.50; ...
     004.200, 19.92, -39.13, 6.50; ...
     004.250, 19.92, -39.58, 6.50; ...
     004.300, 19.91, -40.04, 6.50; ...
     004.350, 19.91, -40.49, 6.50; ...
     004.400, 19.91, -40.95, 6.50; ...
     004.450, 19.91, -41.43, 6.50; ...
     004.500, 19.91, -41.91, 6.50; ...
     004.550, 19.91, -42.40, 6.50; ...
     004.600, 19.91, -42.88, 6.50; ...
     004.650, 19.91, -43.37, 6.50; ...
     004.700, 19.91, -43.85, 6.50; ...
     004.750, 19.92, -44.30, 6.50; ...
     004.800, 19.92, -44.76, 6.50; ...
     004.850, 19.92, -45.20, 6.50; ...
     004.900, 19.92, -45.65, 6.50; ...
     004.950, 19.92, -46.10, 6.50; ...
     005.000, 19.92, -46.55, 6.50; ...
     005.050, 19.91, -47.01, 6.50; ...
     005.100, 19.91, -47.48, 6.50; ...
     005.150, 19.90, -47.96, 6.50; ...
     005.200, 19.90, -48.43, 6.50; ...
     005.250, 19.89, -48.91, 6.50; ...
     005.300, 19.88, -49.38, 6.50; ...
     005.350, 19.88, -49.86, 6.50; ...
     005.400, 19.88, -50.34, 6.50; ...
     005.450, 19.87, -50.82, 6.50; ...
     005.500, 19.87, -51.30, 6.50; ...
     005.550, 19.87, -51.78, 6.50; ...
     005.600, 19.87, -52.26, 6.50; ...
     005.650, 19.87, -52.73, 6.50; ...
     005.700, 19.87, -53.20, 6.50; ...
     005.750, 19.86, -53.66, 6.50; ...
     005.800, 19.86, -54.12, 6.50; ...
     005.850, 19.86, -54.58, 6.51; ...
     005.900, 19.86, -55.04, 6.51; ...
     005.950, 19.86, -55.51, 6.51; ...
     006.000, 19.87, -55.97, 6.51; ...
     006.050, 19.87, -56.43, 6.51; ...
     006.100, 19.87, -56.89, 6.51; ...
     006.150, 19.87, -57.36, 6.51; ...
     006.200, 19.88, -57.82, 6.51; ...
     006.250, 19.88, -58.29, 6.51; ...
     006.300, 19.88, -58.76, 6.51; ...
     006.350, 19.87, -59.24, 6.51; ...
     006.400, 19.87, -59.72, 6.51; ...
     006.450, 19.86, -60.21, 6.51; ...
     006.500, 19.86, -60.69, 6.51; ...
     006.550, 19.85, -61.18, 6.51; ...
     006.600, 19.85, -61.66, 6.51; ...
     006.650, 19.84, -62.13, 6.51; ...
     006.700, 19.84, -62.59, 6.51; ...
     006.750, 19.84, -63.06, 6.51; ...
     006.800, 19.84, -63.53, 6.51; ...
     006.850, 19.84, -64.00, 6.51; ...
     006.900, 19.84, -64.47, 6.51; ...
     006.950, 19.83, -64.93, 6.51; ...
     007.000, 19.83, -65.38, 6.51; ...
     007.050, 19.83, -65.84, 6.51; ...
     007.100, 19.83, -66.29, 6.51; ...
     007.150, 19.82, -66.75, 6.51; ...
     007.200, 19.82, -67.20, 6.51; ...
     007.250, 19.82, -67.68, 6.51; ...
     007.300, 19.83, -68.16, 6.51; ...
     007.350, 19.83, -68.63, 6.51; ...
     007.400, 19.83, -69.11, 6.51; ...
     007.450, 19.83, -69.59, 6.51; ...
     007.500, 19.84, -70.07, 6.51; ...
     007.550, 19.83, -70.55, 6.51; ...
     007.600, 19.82, -71.02, 6.51; ...
     007.650, 19.82, -71.50, 6.51; ...
     007.700, 19.82, -71.97, 6.51; ...
     007.750, 19.82, -72.45, 6.51; ...
     007.800, 19.81, -72.93, 6.51; ...
     007.850, 19.81, -73.41, 6.51; ...
     007.900, 19.81, -73.89, 6.51; ...
     007.950, 19.81, -74.38, 6.51; ...
     008.000, 19.80, -74.87, 6.51; ...
     008.050, 19.80, -75.36, 6.51; ...
     008.100, 19.79, -75.84, 6.52; ...
     008.150, 19.79, -76.33, 6.52; ...
     008.200, 19.79, -76.81, 6.52; ...
     008.250, 19.79, -77.30, 6.52; ...
     008.300, 19.79, -77.78, 6.52; ...
     008.350, 19.79, -78.27, 6.52; ...
     008.400, 19.79, -78.75, 6.52; ...
     008.450, 19.79, -79.22, 6.52; ...
     008.500, 19.78, -79.70, 6.52; ...
     008.550, 19.78, -80.17, 6.52; ...
     008.600, 19.77, -80.64, 6.52; ...
     008.650, 19.77, -81.12, 6.52; ...
     008.700, 19.76, -81.59, 6.52; ...
     008.750, 19.76, -82.06, 6.52; ...
     008.800, 19.75, -82.53, 6.52; ...
     008.850, 19.75, -83.01, 6.52; ...
     008.900, 19.75, -83.48, 6.52; ...
     008.950, 19.76, -83.95, 6.52; ...
     009.000, 19.76, -84.42, 6.52; ...
     009.050, 19.76, -84.89, 6.52; ...
     009.100, 19.75, -85.36, 6.52; ...
     009.150, 19.75, -85.82, 6.52; ...
     009.200, 19.75, -86.28, 6.52; ...
     009.250, 19.75, -86.74, 6.52; ...
     009.300, 19.75, -87.21, 6.52; ...
     009.350, 19.75, -87.67, 6.52; ...
     009.400, 19.74, -88.14, 6.52; ...
     009.450, 19.74, -88.63, 6.52; ...
     009.500, 19.74, -89.11, 6.52; ...
     009.550, 19.75, -89.59, 6.52; ...
     009.600, 19.75, -90.07, 6.52; ...
     009.650, 19.75, -90.51, 6.52; ...
     009.700, 19.75, -90.94, 6.52; ...
     009.750, 19.75, -91.18, 6.52; ...
     009.800, 19.74, -91.41, 6.52; ...
     009.850, 19.74, -91.64, 6.52; ...
     009.900, 19.74, -91.87, 6.52; ...
     009.950, 19.74, -92.16, 6.52; ...
     010.000, 19.73, -92.45, 6.52; ...
     010.050, 19.73, -93.02, 6.53; ...
     010.100, 19.73, -93.58, 6.53; ...
     010.150, 19.72, -94.15, 6.53; ...
     010.200, 19.72, -94.71, 6.53; ...
     010.250, 19.72, -95.28, 6.53; ...
     010.300, 19.72, -95.85, 6.53; ...
     010.350, 19.72, -96.41, 6.53; ...
     010.400, 19.71, -96.98, 6.53; ...
     010.450, 19.71, -97.54, 6.53; ...
     010.500, 19.71, -98.11, 6.53; ...
     010.550, 19.71, -98.68, 6.53; ...
     010.600, 19.71, -99.24, 6.53; ...
     010.650, 19.70, -99.81, 6.53; ...
     010.700, 19.70, -100.37, 6.53; ...
     010.750, 19.70, -100.94, 6.53; ...
     010.800, 19.70, -101.51, 6.53; ...
     010.850, 19.70, -102.07, 6.53; ...
     010.900, 19.69, -102.64, 6.53; ...
     010.950, 19.69, -103.20, 6.53; ...
     011.000, 19.69, -103.77, 6.53; ...
     011.050, 19.69, -104.26, 6.53; ...
     011.100, 19.69, -104.75, 6.53; ...
     011.150, 19.68, -105.24, 6.53; ...
     011.200, 19.68, -105.74, 6.53; ...
     011.250, 19.68, -106.23, 6.53; ...
     011.300, 19.68, -106.72, 6.53; ...
     011.350, 19.67, -107.21, 6.53; ...
     011.400, 19.67, -107.70, 6.53; ...
     011.450, 19.67, -108.19, 6.53; ...
     011.500, 19.67, -108.69, 6.53; ...
     011.550, 19.66, -109.18, 6.53; ...
     011.600, 19.66, -109.67, 6.53; ...
     011.650, 19.66, -110.16, 6.53; ...
     011.700, 19.66, -110.65, 6.53; ...
     011.750, 19.65, -111.14, 6.53; ...
     011.800, 19.65, -111.63, 6.53; ...
     011.850, 19.65, -112.13, 6.53; ...
     011.900, 19.65, -112.62, 6.53; ...
     011.950, 19.64, -113.11, 6.53; ...
     012.000, 19.64, -113.60, 6.53; ...
     012.050, 19.64, -114.10, 6.54; ...
     012.100, 19.64, -114.60, 6.54; ...
     012.150, 19.63, -115.10, 6.54; ...
     012.200, 19.63, -115.59, 6.54; ...
     012.250, 19.63, -116.09, 6.54; ...
     012.300, 19.63, -116.59, 6.54; ...
     012.350, 19.62, -117.09, 6.54; ...
     012.400, 19.62, -117.59, 6.54; ...
     012.450, 19.62, -118.09, 6.54; ...
     012.500, 19.62, -118.59, 6.54; ...
     012.550, 19.62, -119.08, 6.54; ...
     012.600, 19.61, -119.58, 6.54; ...
     012.650, 19.61, -120.08, 6.54; ...
     012.700, 19.61, -120.58, 6.54; ...
     012.750, 19.61, -121.08, 6.54; ...
     012.800, 19.60, -121.58, 6.54; ...
     012.850, 19.60, -122.07, 6.54; ...
     012.900, 19.60, -122.57, 6.54; ...
     012.950, 19.60, -123.07, 6.54; ...
     013.000, 19.59, -123.57, 6.54; ...
     013.050, 19.59, -124.07, 6.54; ...
     013.100, 19.59, -124.58, 6.54; ...
     013.150, 19.58, -125.08, 6.54; ...
     013.200, 19.58, -125.58, 6.54; ...
     013.250, 19.58, -126.09, 6.54; ...
     013.300, 19.58, -126.59, 6.54; ...
     013.350, 19.57, -127.09, 6.54; ...
     013.400, 19.57, -127.60, 6.54; ...
     013.450, 19.57, -128.10, 6.54; ...
     013.500, 19.56, -128.60, 6.54; ...
     013.550, 19.56, -129.11, 6.54; ...
     013.600, 19.56, -129.61, 6.54; ...
     013.650, 19.55, -130.12, 6.54; ...
     013.700, 19.55, -130.62, 6.54; ...
     013.750, 19.55, -131.12, 6.54; ...
     013.800, 19.55, -131.63, 6.54; ...
     013.850, 19.54, -132.13, 6.54; ...
     013.900, 19.54, -132.63, 6.54; ...
     013.950, 19.54, -133.14, 6.54; ...
     014.000, 19.53, -133.64, 6.54; ...
     014.050, 19.53, -134.15, 6.54; ...
     014.100, 19.53, -134.66, 6.54; ...
     014.150, 19.52, -135.18, 6.54; ...
     014.200, 19.52, -135.69, 6.54; ...
     014.250, 19.52, -136.20, 6.55; ...
     014.300, 19.51, -136.71, 6.55; ...
     014.350, 19.51, -137.22, 6.55; ...
     014.400, 19.51, -137.74, 6.55; ...
     014.450, 19.50, -138.25, 6.55; ...
     014.500, 19.50, -138.76, 6.55; ...
     014.550, 19.50, -139.27, 6.55; ...
     014.600, 19.49, -139.78, 6.55; ...
     014.650, 19.49, -140.30, 6.55; ...
     014.700, 19.49, -140.81, 6.55; ...
     014.750, 19.48, -141.32, 6.55; ...
     014.800, 19.48, -141.83, 6.55; ...
     014.850, 19.48, -142.34, 6.55; ...
     014.900, 19.47, -142.86, 6.55; ...
     014.950, 19.47, -143.37, 6.55; ...
     015.000, 19.47, -143.88, 6.55; ...
     015.050, 19.46, -144.40, 6.55; ...
     015.100, 19.46, -144.92, 6.55; ...
     015.150, 19.45, -145.45, 6.55; ...
     015.200, 19.45, -145.97, 6.55; ...
     015.250, 19.45, -146.49, 6.55; ...
     015.300, 19.44, -147.01, 6.55; ...
     015.350, 19.44, -147.53, 6.55; ...
     015.400, 19.43, -148.06, 6.55; ...
     015.450, 19.43, -148.58, 6.55; ...
     015.500, 19.43, -149.10, 6.55; ...
     015.550, 19.42, -149.62, 6.55; ...
     015.600, 19.42, -150.14, 6.55; ...
     015.650, 19.41, -150.67, 6.55; ...
     015.700, 19.41, -151.19, 6.55; ...
     015.750, 19.41, -151.71, 6.55; ...
     015.800, 19.40, -152.23, 6.55; ...
     015.850, 19.40, -152.75, 6.55; ...
     015.900, 19.39, -153.28, 6.55; ...
     015.950, 19.39, -153.80, 6.55; ...
     016.000, 19.39, -154.32, 6.55; ...
     016.050, 19.38, -154.85, 6.55; ...
     016.100, 19.38, -155.37, 6.55; ...
     016.150, 19.38, -155.90, 6.55; ...
     016.200, 19.37, -156.42, 6.55; ...
     016.250, 19.37, -156.95, 6.56; ...
     016.300, 19.37, -157.47, 6.56; ...
     016.350, 19.37, -158.00, 6.56; ...
     016.400, 19.36, -158.52, 6.56; ...
     016.450, 19.36, -159.05, 6.56; ...
     016.500, 19.36, -159.57, 6.56; ...
     016.550, 19.35, -160.10, 6.56; ...
     016.600, 19.35, -160.63, 6.56; ...
     016.650, 19.35, -161.15, 6.56; ...
     016.700, 19.34, -161.68, 6.56; ...
     016.750, 19.34, -162.20, 6.56; ...
     016.800, 19.34, -162.73, 6.56; ...
     016.850, 19.34, -163.25, 6.56; ...
     016.900, 19.33, -163.78, 6.56; ...
     016.950, 19.33, -164.30, 6.56; ...
     017.000, 19.33, -164.83, 6.56; ...
     017.050, 19.32, -165.37, 6.56; ...
     017.100, 19.32, -165.90, 6.56; ...
     017.150, 19.31, -166.44, 6.56; ...
     017.200, 19.31, -166.97, 6.56; ...
     017.250, 19.30, -167.51, 6.56; ...
     017.300, 19.30, -168.04, 6.56; ...
     017.350, 19.30, -168.58, 6.56; ...
     017.400, 19.29, -169.11, 6.56; ...
     017.450, 19.29, -169.65, 6.56; ...
     017.500, 19.28, -170.19, 6.56; ...
     017.550, 19.28, -170.72, 6.56; ...
     017.600, 19.27, -171.26, 6.56; ...
     017.650, 19.27, -171.79, 6.56; ...
     017.700, 19.26, -172.33, 6.56; ...
     017.750, 19.26, -172.86, 6.56; ...
     017.800, 19.26, -173.40, 6.56; ...
     017.850, 19.25, -173.93, 6.56; ...
     017.900, 19.25, -174.47, 6.56; ...
     017.950, 19.24, -175.00, 6.56; ...
     018.000, 19.24, -175.54, 6.56; ...
     018.050, 19.24, -176.09, 6.56; ...
     018.100, 19.23, -176.64, 6.56; ...
     018.150, 19.23, -177.18, 6.56; ...
     018.200, 19.23, -177.73, 6.56; ...
     018.250, 19.22, -178.28, 6.57; ...
     018.300, 19.22, -178.83, 6.57; ...
     018.350, 19.22, -179.38, 6.57; ...
     018.400, 19.21, -179.92, 6.57; ...
     018.450, 19.21, -180.47, 6.57; ...
     018.500, 19.21, -181.02, 6.57; ...
     018.550, 19.21, -181.57, 6.57; ...
     018.600, 19.20, -182.12, 6.57; ...
     018.650, 19.20, -182.66, 6.57; ...
     018.700, 19.20, -183.21, 6.57; ...
     018.750, 19.19, -183.76, 6.57; ...
     018.800, 19.19, -184.31, 6.57; ...
     018.850, 19.19, -184.86, 6.57; ...
     018.900, 19.18, -185.40, 6.57; ...
     018.950, 19.18, -185.95, 6.57; ...
     019.000, 19.18, -186.50, 6.57; ...
     019.050, 19.18, -187.07, 6.57; ...
     019.100, 19.18, -187.64, 6.57; ...
     019.150, 19.17, -188.21, 6.57; ...
     019.200, 19.17, -188.79, 6.57; ...
     019.250, 19.17, -189.36, 6.57; ...
     019.300, 19.17, -189.93, 6.57; ...
     019.350, 19.17, -190.50, 6.57; ...
     019.400, 19.16, -191.07, 6.57; ...
     019.450, 19.16, -191.64, 6.57; ...
     019.500, 19.16, -192.22, 6.57; ...
     019.550, 19.16, -192.79, 6.57; ...
     019.600, 19.16, -193.36, 6.57; ...
     019.650, 19.15, -193.93, 6.57; ...
     019.700, 19.15, -194.50, 6.57; ...
     019.750, 19.15, -195.07, 6.57; ...
     019.800, 19.15, -195.64, 6.57; ...
     019.850, 19.15, -196.22, 6.57; ...
     019.900, 19.14, -196.79, 6.57; ...
     019.950, 19.14, -197.36, 6.57; ...
     020.000, 19.14, -197.93, 6.57];
end

function data = get_preamp_upper_gain
% MHz, dB, Phase, pF
data = ...
    [000.050, 19.50, 13.41, 6.50;
     000.051, 19.50, 13.15, 6.50;
     000.052, 19.50, 12.89, 6.50;
     000.053, 19.49, 12.64, 6.50;
     000.054, 19.49, 12.39, 6.50;
     000.055, 19.49, 12.15, 6.50;
     000.056, 19.50, 11.91, 6.50;
     000.057, 19.50, 11.66, 6.50;
     000.058, 19.49, 11.46, 6.50;
     000.059, 19.48, 11.26, 6.50;
     000.060, 19.48, 11.10, 6.50;
     000.061, 19.48, 10.98, 6.50;
     000.062, 19.47, 10.85, 6.50;
     000.063, 19.47, 10.76, 6.50;
     000.064, 19.47, 10.66, 6.50;
     000.065, 19.48, 10.52, 6.50;
     000.066, 19.49, 10.33, 6.50;
     000.067, 19.50, 10.16, 6.50;
     000.068, 19.50, 10.11, 6.50;
     000.069, 19.51, 10.06, 6.50;
     000.070, 19.51, 9.99, 6.50;
     000.071, 19.52, 9.89, 6.50;
     000.072, 19.53, 9.80, 6.50;
     000.073, 19.54, 9.66, 6.50;
     000.074, 19.55, 9.53, 6.50;
     000.075, 19.56, 9.47, 6.50;
     000.076, 19.56, 9.46, 6.50;
     000.077, 19.56, 9.42, 6.50;
     000.078, 19.57, 9.28, 6.50;
     000.079, 19.58, 9.13, 6.50;
     000.080, 19.60, 9.02, 6.50;
     000.081, 19.62, 8.92, 6.50;
     000.082, 19.64, 8.82, 6.50;
     000.083, 19.64, 8.68, 6.50;
     000.084, 19.65, 8.55, 6.50;
     000.085, 19.66, 8.42, 6.50;
     000.086, 19.67, 8.29, 6.50;
     000.087, 19.68, 8.17, 6.50;
     000.088, 19.69, 8.06, 6.50;
     000.089, 19.70, 7.94, 6.50;
     000.090, 19.70, 7.89, 6.50;
     000.091, 19.71, 7.86, 6.50;
     000.092, 19.71, 7.81, 6.50;
     000.093, 19.73, 7.69, 6.50;
     000.094, 19.74, 7.58, 6.50;
     000.095, 19.74, 7.46, 6.50;
     000.096, 19.74, 7.34, 6.50;
     000.097, 19.75, 7.23, 6.50;
     000.098, 19.76, 7.13, 6.50;
